#2                              Vol =     574.8594696856
#  Energy  [eV]     Im_eps_xx          Im_eps_zz
#
      0.00000     0.00000000E+00     0.00000000E+00
      0.01361     0.00000000E+00     0.00000000E+00
      0.02721     0.00000000E+00     0.00000000E+00
      0.04082     0.00000000E+00     0.00000000E+00
      0.05442     0.00000000E+00     0.00000000E+00
      0.06803     0.00000000E+00     0.00000000E+00
      0.08163     0.00000000E+00     0.00000000E+00
      0.09524     0.00000000E+00     0.00000000E+00
      0.10885     0.00000000E+00     0.00000000E+00
      0.12245     0.00000000E+00     0.00000000E+00
      0.13606     0.00000000E+00     0.00000000E+00
      0.14966     0.00000000E+00     0.00000000E+00
      0.16327     0.00000000E+00     0.00000000E+00
      0.17687     0.00000000E+00     0.00000000E+00
      0.19048     0.00000000E+00     0.00000000E+00
      0.20409     0.00000000E+00     0.00000000E+00
      0.21769     0.00000000E+00     0.00000000E+00
      0.23130     0.00000000E+00     0.00000000E+00
      0.24490     0.00000000E+00     0.00000000E+00
      0.25851     0.00000000E+00     0.00000000E+00
      0.27211     0.00000000E+00     0.00000000E+00
      0.28572     0.00000000E+00     0.00000000E+00
      0.29933     0.00000000E+00     0.00000000E+00
      0.31293     0.00000000E+00     0.00000000E+00
      0.32654     0.00000000E+00     0.00000000E+00
      0.34014     0.00000000E+00     0.00000000E+00
      0.35375     0.00000000E+00     0.00000000E+00
      0.36735     0.00000000E+00     0.00000000E+00
      0.38096     0.00000000E+00     0.00000000E+00
      0.39457     0.00000000E+00     0.00000000E+00
      0.40817     0.00000000E+00     0.00000000E+00
      0.42178     0.00000000E+00     0.00000000E+00
      0.43538     0.00000000E+00     0.00000000E+00
      0.44899     0.00000000E+00     0.00000000E+00
      0.46259     0.00000000E+00     0.00000000E+00
      0.47620     0.00000000E+00     0.00000000E+00
      0.48981     0.00000000E+00     0.00000000E+00
      0.50341     0.00000000E+00     0.00000000E+00
      0.51702     0.00000000E+00     0.00000000E+00
      0.53062     0.00000000E+00     0.00000000E+00
      0.54423     0.00000000E+00     0.00000000E+00
      0.55783     0.00000000E+00     0.00000000E+00
      0.57144     0.00000000E+00     0.00000000E+00
      0.58504     0.00000000E+00     0.00000000E+00
      0.59865     0.00000000E+00     0.00000000E+00
      0.61226     0.00000000E+00     0.00000000E+00
      0.62586     0.00000000E+00     0.00000000E+00
      0.63947     0.00000000E+00     0.00000000E+00
      0.65307     0.00000000E+00     0.00000000E+00
      0.66668     0.00000000E+00     0.00000000E+00
      0.68028     0.00000000E+00     0.00000000E+00
      0.69389     0.00000000E+00     0.00000000E+00
      0.70750     0.00000000E+00     0.00000000E+00
      0.72110     0.00000000E+00     0.00000000E+00
      0.73471     0.00000000E+00     0.00000000E+00
      0.74831     0.00000000E+00     0.00000000E+00
      0.76192     0.00000000E+00     0.00000000E+00
      0.77552     0.00000000E+00     0.00000000E+00
      0.78913     0.00000000E+00     0.00000000E+00
      0.80274     0.00000000E+00     0.00000000E+00
      0.81634     0.00000000E+00     0.00000000E+00
      0.82995     0.00000000E+00     0.00000000E+00
      0.84355     0.00000000E+00     0.00000000E+00
      0.85716     0.00000000E+00     0.00000000E+00
      0.87076     0.00000000E+00     0.00000000E+00
      0.88437     0.00000000E+00     0.00000000E+00
      0.89798     0.00000000E+00     0.00000000E+00
      0.91158     0.00000000E+00     0.00000000E+00
      0.92519     0.00000000E+00     0.00000000E+00
      0.93879     0.00000000E+00     0.00000000E+00
      0.95240     0.00000000E+00     0.00000000E+00
      0.96600     0.00000000E+00     0.00000000E+00
      0.97961     0.00000000E+00     0.00000000E+00
      0.99322     0.00000000E+00     0.00000000E+00
      1.00682     0.00000000E+00     0.00000000E+00
      1.02043     0.00000000E+00     0.00000000E+00
      1.03403     0.00000000E+00     0.00000000E+00
      1.04764     0.00000000E+00     0.00000000E+00
      1.06124     0.00000000E+00     0.00000000E+00
      1.07485     0.00000000E+00     0.00000000E+00
      1.08846     0.00000000E+00     0.00000000E+00
      1.10206     0.00000000E+00     0.00000000E+00
      1.11567     0.00000000E+00     0.00000000E+00
      1.12927     0.00000000E+00     0.00000000E+00
      1.14288     0.00000000E+00     0.00000000E+00
      1.15648     0.00000000E+00     0.00000000E+00
      1.17009     0.00000000E+00     0.00000000E+00
      1.18370     0.00000000E+00     0.00000000E+00
      1.19730     0.00000000E+00     0.00000000E+00
      1.21091     0.00000000E+00     0.00000000E+00
      1.22451     0.00000000E+00     0.00000000E+00
      1.23812     0.00000000E+00     0.00000000E+00
      1.25172     0.00000000E+00     0.00000000E+00
      1.26533     0.00000000E+00     0.00000000E+00
      1.27894     0.00000000E+00     0.00000000E+00
      1.29254     0.00000000E+00     0.00000000E+00
      1.30615     0.00000000E+00     0.00000000E+00
      1.31975     0.00000000E+00     0.00000000E+00
      1.33336     0.00000000E+00     0.00000000E+00
      1.34696     0.00000000E+00     0.00000000E+00
      1.36057     0.00000000E+00     0.00000000E+00
      1.37418     0.00000000E+00     0.00000000E+00
      1.38778     0.00000000E+00     0.00000000E+00
      1.40139     0.00000000E+00     0.00000000E+00
      1.41499     0.00000000E+00     0.00000000E+00
      1.42860     0.00000000E+00     0.00000000E+00
      1.44220     0.00000000E+00     0.00000000E+00
      1.45581     0.00000000E+00     0.00000000E+00
      1.46942     0.00000000E+00     0.00000000E+00
      1.48302     0.00000000E+00     0.00000000E+00
      1.49663     0.00000000E+00     0.00000000E+00
      1.51023     0.00000000E+00     0.00000000E+00
      1.52384     0.00000000E+00     0.00000000E+00
      1.53744     0.00000000E+00     0.00000000E+00
      1.55105     0.00000000E+00     0.00000000E+00
      1.56466     0.00000000E+00     0.00000000E+00
      1.57826     0.00000000E+00     0.00000000E+00
      1.59187     0.00000000E+00     0.00000000E+00
      1.60547     0.00000000E+00     0.00000000E+00
      1.61908     0.00000000E+00     0.00000000E+00
      1.63268     0.00000000E+00     0.00000000E+00
      1.64629     0.00000000E+00     0.00000000E+00
      1.65990     0.00000000E+00     0.00000000E+00
      1.67350     0.00000000E+00     0.00000000E+00
      1.68711     0.00000000E+00     0.00000000E+00
      1.70071     0.00000000E+00     0.00000000E+00
      1.71432     0.00000000E+00     0.00000000E+00
      1.72792     0.00000000E+00     0.00000000E+00
      1.74153     0.00000000E+00     0.00000000E+00
      1.75513     0.00000000E+00     0.00000000E+00
      1.76874     0.00000000E+00     0.00000000E+00
      1.78235     0.00000000E+00     0.00000000E+00
      1.79595     0.00000000E+00     0.00000000E+00
      1.80956     0.00000000E+00     0.00000000E+00
      1.82316     0.16552301E-01     0.16552301E-01
      1.83677     0.82245578E-01     0.82245578E-01
      1.85037     0.13266024E+00     0.13266024E+00
      1.86398     0.17800075E+00     0.17800075E+00
      1.87759     0.20985772E+00     0.20985772E+00
      1.89119     0.23361642E+00     0.23361642E+00
      1.90480     0.25474641E+00     0.25474641E+00
      1.91840     0.27364806E+00     0.27364806E+00
      1.93201     0.29047715E+00     0.29047715E+00
      1.94561     0.30653929E+00     0.30653929E+00
      1.95922     0.32238651E+00     0.32238651E+00
      1.97283     0.34829341E+00     0.34829341E+00
      1.98643     0.38526469E+00     0.38526469E+00
      2.00004     0.42296525E+00     0.42296525E+00
      2.01364     0.46246695E+00     0.46246695E+00
      2.02725     0.50311820E+00     0.50311820E+00
      2.04085     0.54656589E+00     0.54656589E+00
      2.05446     0.59069474E+00     0.59069474E+00
      2.06807     0.63244644E+00     0.63244644E+00
      2.08167     0.67232546E+00     0.67232546E+00
      2.09528     0.71117435E+00     0.71117435E+00
      2.10888     0.74809404E+00     0.74809404E+00
      2.12249     0.78462359E+00     0.78462359E+00
      2.13609     0.82172563E+00     0.82172563E+00
      2.14970     0.85700797E+00     0.85700797E+00
      2.16331     0.89451402E+00     0.89451402E+00
      2.17691     0.93863036E+00     0.93863036E+00
      2.19052     0.97959798E+00     0.97959798E+00
      2.20412     0.10189257E+01     0.10189257E+01
      2.21773     0.10563435E+01     0.10563435E+01
      2.23133     0.10929927E+01     0.10929927E+01
      2.24494     0.11332413E+01     0.11332413E+01
      2.25855     0.11691647E+01     0.11691647E+01
      2.27215     0.12023886E+01     0.12023886E+01
      2.28576     0.12263252E+01     0.12263252E+01
      2.29936     0.12571305E+01     0.12571305E+01
      2.31297     0.12978115E+01     0.12978115E+01
      2.32657     0.13529039E+01     0.13529039E+01
      2.34018     0.14014507E+01     0.14014507E+01
      2.35379     0.14487724E+01     0.14487724E+01
      2.36739     0.14954835E+01     0.14954835E+01
      2.38100     0.15422249E+01     0.15422249E+01
      2.39460     0.15886308E+01     0.15886308E+01
      2.40821     0.16420952E+01     0.16420952E+01
      2.42181     0.17043384E+01     0.17043384E+01
      2.43542     0.17820730E+01     0.17820730E+01
      2.44903     0.18728741E+01     0.18728741E+01
      2.46263     0.19901761E+01     0.19901761E+01
      2.47624     0.21111342E+01     0.21111342E+01
      2.48984     0.22551508E+01     0.22551508E+01
      2.50345     0.23534718E+01     0.23534718E+01
      2.51705     0.23741901E+01     0.23741901E+01
      2.53066     0.24059876E+01     0.24059876E+01
      2.54427     0.24241240E+01     0.24241240E+01
      2.55787     0.24214113E+01     0.24214113E+01
      2.57148     0.24132032E+01     0.24132032E+01
      2.58508     0.24051546E+01     0.24051546E+01
      2.59869     0.24006773E+01     0.24006773E+01
      2.61229     0.23909702E+01     0.23909702E+01
      2.62590     0.23735298E+01     0.23735298E+01
      2.63951     0.23471402E+01     0.23471402E+01
      2.65311     0.23182892E+01     0.23182892E+01
      2.66672     0.22959715E+01     0.22959715E+01
      2.68032     0.22731243E+01     0.22731243E+01
      2.69393     0.22463878E+01     0.22463878E+01
      2.70753     0.22155779E+01     0.22155779E+01
      2.72114     0.21813133E+01     0.21813133E+01
      2.73475     0.21455589E+01     0.21455589E+01
      2.74835     0.21099927E+01     0.21099927E+01
      2.76196     0.20723753E+01     0.20723753E+01
      2.77556     0.20441027E+01     0.20441027E+01
      2.78917     0.20196869E+01     0.20196869E+01
      2.80277     0.20006255E+01     0.20006255E+01
      2.81638     0.19799533E+01     0.19799533E+01
      2.82999     0.19564556E+01     0.19564556E+01
      2.84359     0.19339002E+01     0.19339002E+01
      2.85720     0.19082002E+01     0.19082002E+01
      2.87080     0.18806090E+01     0.18806090E+01
      2.88441     0.18486366E+01     0.18486366E+01
      2.89801     0.18145395E+01     0.18145395E+01
      2.91162     0.17789230E+01     0.17789230E+01
      2.92522     0.17444068E+01     0.17444068E+01
      2.93883     0.17289978E+01     0.17289978E+01
      2.95244     0.17185799E+01     0.17185799E+01
      2.96604     0.17100731E+01     0.17100731E+01
      2.97965     0.17024798E+01     0.17024798E+01
      2.99325     0.16988670E+01     0.16988670E+01
      3.00686     0.16995507E+01     0.16995507E+01
      3.02046     0.16977502E+01     0.16977502E+01
      3.03407     0.16970344E+01     0.16970344E+01
      3.04768     0.16936188E+01     0.16936188E+01
      3.06128     0.16793437E+01     0.16793437E+01
      3.07489     0.16619900E+01     0.16619900E+01
      3.08849     0.16432737E+01     0.16432737E+01
      3.10210     0.16243645E+01     0.16243645E+01
      3.11570     0.16044270E+01     0.16044270E+01
      3.12931     0.15821788E+01     0.15821788E+01
      3.14292     0.15582690E+01     0.15582690E+01
      3.15652     0.15345676E+01     0.15345676E+01
      3.17013     0.15135497E+01     0.15135497E+01
      3.18373     0.14935766E+01     0.14935766E+01
      3.19734     0.14730694E+01     0.14730694E+01
      3.21094     0.14555001E+01     0.14555001E+01
      3.22455     0.14373560E+01     0.14373560E+01
      3.23816     0.14203090E+01     0.14203090E+01
      3.25176     0.14041386E+01     0.14041386E+01
      3.26537     0.13884678E+01     0.13884678E+01
      3.27897     0.13733307E+01     0.13733307E+01
      3.29258     0.13583074E+01     0.13583074E+01
      3.30618     0.13427723E+01     0.13427723E+01
      3.31979     0.13271819E+01     0.13271819E+01
      3.33340     0.13114423E+01     0.13114423E+01
      3.34700     0.12966438E+01     0.12966438E+01
      3.36061     0.12823326E+01     0.12823326E+01
      3.37421     0.12680496E+01     0.12680496E+01
      3.38782     0.12538812E+01     0.12538812E+01
      3.40142     0.12398958E+01     0.12398958E+01
      3.41503     0.12266858E+01     0.12266858E+01
      3.42864     0.12142843E+01     0.12142843E+01
      3.44224     0.12017800E+01     0.12017800E+01
      3.45585     0.11874529E+01     0.11874529E+01
      3.46945     0.11732912E+01     0.11732912E+01
      3.48306     0.11602558E+01     0.11602558E+01
      3.49666     0.11488870E+01     0.11488870E+01
      3.51027     0.11391044E+01     0.11391044E+01
      3.52388     0.11300697E+01     0.11300697E+01
      3.53748     0.11225601E+01     0.11225601E+01
      3.55109     0.11174922E+01     0.11174922E+01
      3.56469     0.11148790E+01     0.11148790E+01
      3.57830     0.11237415E+01     0.11237415E+01
      3.59190     0.11516418E+01     0.11516418E+01
      3.60551     0.11901251E+01     0.11901251E+01
      3.61912     0.12786430E+01     0.12786430E+01
      3.63272     0.15122326E+01     0.15122326E+01
      3.64633     0.17159608E+01     0.17159608E+01
      3.65993     0.20190003E+01     0.20190003E+01
      3.67354     0.23560957E+01     0.23560957E+01
      3.68714     0.25570803E+01     0.25570803E+01
      3.70075     0.27072739E+01     0.27072739E+01
      3.71436     0.28204436E+01     0.28204436E+01
      3.72796     0.29513457E+01     0.29513457E+01
      3.74157     0.31155455E+01     0.31155455E+01
      3.75517     0.32605416E+01     0.32605416E+01
      3.76878     0.34102957E+01     0.34102957E+01
      3.78238     0.35481078E+01     0.35481078E+01
      3.79599     0.36848672E+01     0.36848672E+01
      3.80960     0.38187727E+01     0.38187727E+01
      3.82320     0.39386550E+01     0.39386550E+01
      3.83681     0.40240755E+01     0.40240755E+01
      3.85041     0.41193020E+01     0.41193020E+01
      3.86402     0.42019007E+01     0.42019007E+01
      3.87762     0.43864045E+01     0.43864045E+01
      3.89123     0.44688935E+01     0.44688935E+01
      3.90484     0.45032491E+01     0.45032491E+01
      3.91844     0.45359981E+01     0.45359981E+01
      3.93205     0.45550249E+01     0.45550249E+01
      3.94565     0.45495604E+01     0.45495604E+01
      3.95926     0.45378528E+01     0.45378528E+01
      3.97286     0.45311430E+01     0.45311430E+01
      3.98647     0.45221705E+01     0.45221705E+01
      4.00008     0.45166813E+01     0.45166813E+01
      4.01368     0.43674631E+01     0.43674631E+01
      4.02729     0.43102847E+01     0.43102847E+01
      4.04089     0.42535527E+01     0.42535527E+01
      4.05450     0.42153324E+01     0.42153324E+01
      4.06810     0.42898042E+01     0.42898042E+01
      4.08171     0.44754765E+01     0.44754765E+01
      4.09531     0.46808341E+01     0.46808341E+01
      4.10892     0.49030615E+01     0.49030615E+01
      4.12253     0.51580665E+01     0.51580665E+01
      4.13613     0.53347148E+01     0.53347148E+01
      4.14974     0.52419689E+01     0.52419689E+01
      4.16334     0.50161735E+01     0.50161735E+01
      4.17695     0.47498765E+01     0.47498765E+01
      4.19055     0.44165624E+01     0.44165624E+01
      4.20416     0.40172567E+01     0.40172567E+01
      4.21777     0.35364623E+01     0.35364623E+01
      4.23137     0.31761731E+01     0.31761731E+01
      4.24498     0.29924797E+01     0.29924797E+01
      4.25858     0.28630768E+01     0.28630768E+01
      4.27219     0.27480807E+01     0.27480807E+01
      4.28579     0.26700365E+01     0.26700365E+01
      4.29940     0.27244471E+01     0.27244471E+01
      4.31301     0.28328599E+01     0.28328599E+01
      4.32661     0.29694660E+01     0.29694660E+01
      4.34022     0.30860520E+01     0.30860520E+01
      4.35382     0.30936048E+01     0.30936048E+01
      4.36743     0.30780195E+01     0.30780195E+01
      4.38103     0.30447638E+01     0.30447638E+01
      4.39464     0.34182806E+01     0.34182806E+01
      4.40825     0.33568346E+01     0.33568346E+01
      4.42185     0.33114057E+01     0.33114057E+01
      4.43546     0.32511556E+01     0.32511556E+01
      4.44906     0.33023944E+01     0.33023944E+01
      4.46267     0.33421851E+01     0.33421851E+01
      4.47627     0.33762296E+01     0.33762296E+01
      4.48988     0.33489927E+01     0.33489927E+01
      4.50349     0.30768442E+01     0.30768442E+01
      4.51709     0.31334853E+01     0.31334853E+01
      4.53070     0.31921802E+01     0.31921802E+01
      4.54430     0.32526950E+01     0.32526950E+01
      4.55791     0.33114101E+01     0.33114101E+01
      4.57151     0.33526256E+01     0.33526256E+01
      4.58512     0.33668659E+01     0.33668659E+01
      4.59873     0.33422919E+01     0.33422919E+01
      4.61233     0.32757799E+01     0.32757799E+01
      4.62594     0.31655098E+01     0.31655098E+01
      4.63954     0.29818791E+01     0.29818791E+01
      4.65315     0.29161914E+01     0.29161914E+01
      4.66675     0.28843961E+01     0.28843961E+01
      4.68036     0.28478795E+01     0.28478795E+01
      4.69397     0.28372681E+01     0.28372681E+01
      4.70757     0.28544544E+01     0.28544544E+01
      4.72118     0.28485701E+01     0.28485701E+01
      4.73478     0.28498640E+01     0.28498640E+01
      4.74839     0.28579428E+01     0.28579428E+01
      4.76199     0.28682501E+01     0.28682501E+01
      4.77560     0.28768636E+01     0.28768636E+01
      4.78921     0.28681452E+01     0.28681452E+01
      4.80281     0.28046909E+01     0.28046909E+01
      4.81642     0.27958971E+01     0.27958971E+01
      4.83002     0.27832918E+01     0.27832918E+01
      4.84363     0.27656749E+01     0.27656749E+01
      4.85723     0.27451636E+01     0.27451636E+01
      4.87084     0.27226063E+01     0.27226063E+01
      4.88445     0.26987952E+01     0.26987952E+01
      4.89805     0.26792161E+01     0.26792161E+01
      4.91166     0.26560616E+01     0.26560616E+01
      4.92526     0.26340064E+01     0.26340064E+01
      4.93887     0.26198339E+01     0.26198339E+01
      4.95247     0.26054524E+01     0.26054524E+01
      4.96608     0.25954713E+01     0.25954713E+01
      4.97969     0.25850305E+01     0.25850305E+01
      4.99329     0.25605457E+01     0.25605457E+01
      5.00690     0.25444440E+01     0.25444440E+01
      5.02050     0.25362901E+01     0.25362901E+01
      5.03411     0.25318487E+01     0.25318487E+01
      5.04771     0.25310121E+01     0.25310121E+01
      5.06132     0.25297388E+01     0.25297388E+01
      5.07493     0.25286820E+01     0.25286820E+01
      5.08853     0.25282186E+01     0.25282186E+01
      5.10214     0.25296443E+01     0.25296443E+01
      5.11574     0.25294469E+01     0.25294469E+01
      5.12935     0.25220993E+01     0.25220993E+01
      5.14295     0.25136375E+01     0.25136375E+01
      5.15656     0.25036290E+01     0.25036290E+01
      5.17017     0.24934658E+01     0.24934658E+01
      5.18377     0.24812266E+01     0.24812266E+01
      5.19738     0.24685064E+01     0.24685064E+01
      5.21098     0.24515927E+01     0.24515927E+01
      5.22459     0.24362909E+01     0.24362909E+01
      5.23819     0.24298847E+01     0.24298847E+01
      5.25180     0.24306613E+01     0.24306613E+01
      5.26540     0.24306810E+01     0.24306810E+01
      5.27901     0.24315332E+01     0.24315332E+01
      5.29262     0.24322531E+01     0.24322531E+01
      5.30622     0.24330286E+01     0.24330286E+01
      5.31983     0.24336630E+01     0.24336630E+01
      5.33343     0.24336397E+01     0.24336397E+01
      5.34704     0.24359706E+01     0.24359706E+01
      5.36064     0.24375006E+01     0.24375006E+01
      5.37425     0.24381951E+01     0.24381951E+01
      5.38786     0.24391665E+01     0.24391665E+01
      5.40146     0.24414600E+01     0.24414600E+01
      5.41507     0.24456375E+01     0.24456375E+01
      5.42867     0.24509621E+01     0.24509621E+01
      5.44228     0.24568442E+01     0.24568442E+01
      5.45588     0.24589321E+01     0.24589321E+01
      5.46949     0.24648658E+01     0.24648658E+01
      5.48310     0.24739598E+01     0.24739598E+01
      5.49670     0.25437972E+01     0.25437972E+01
      5.51031     0.26582047E+01     0.26582047E+01
      5.52391     0.27270910E+01     0.27270910E+01
      5.53752     0.27975756E+01     0.27975756E+01
      5.55112     0.28521976E+01     0.28521976E+01
      5.56473     0.29036219E+01     0.29036219E+01
      5.57834     0.29286524E+01     0.29286524E+01
      5.59194     0.29475563E+01     0.29475563E+01
      5.60555     0.29508516E+01     0.29508516E+01
      5.61915     0.29749459E+01     0.29749459E+01
      5.63276     0.30070496E+01     0.30070496E+01
      5.64636     0.30432770E+01     0.30432770E+01
      5.65997     0.30828653E+01     0.30828653E+01
      5.67358     0.31180355E+01     0.31180355E+01
      5.68718     0.31420348E+01     0.31420348E+01
      5.70079     0.31702212E+01     0.31702212E+01
      5.71439     0.31958727E+01     0.31958727E+01
      5.72800     0.32305048E+01     0.32305048E+01
      5.74160     0.32517537E+01     0.32517537E+01
      5.75521     0.32731180E+01     0.32731180E+01
      5.76882     0.33263294E+01     0.33263294E+01
      5.78242     0.33767733E+01     0.33767733E+01
      5.79603     0.33119910E+01     0.33119910E+01
      5.80963     0.33201259E+01     0.33201259E+01
      5.82324     0.33717920E+01     0.33717920E+01
      5.83684     0.34286345E+01     0.34286345E+01
      5.85045     0.34844366E+01     0.34844366E+01
      5.86406     0.35314393E+01     0.35314393E+01
      5.87766     0.35767260E+01     0.35767260E+01
      5.89127     0.36199624E+01     0.36199624E+01
      5.90487     0.36673039E+01     0.36673039E+01
      5.91848     0.37301213E+01     0.37301213E+01
      5.93208     0.38264139E+01     0.38264139E+01
      5.94569     0.39776991E+01     0.39776991E+01
      5.95930     0.42597207E+01     0.42597207E+01
      5.97290     0.45240760E+01     0.45240760E+01
      5.98651     0.47700434E+01     0.47700434E+01
      6.00011     0.49485414E+01     0.49485414E+01
      6.01372     0.51017149E+01     0.51017149E+01
      6.02732     0.52583986E+01     0.52583986E+01
      6.04093     0.54151072E+01     0.54151072E+01
      6.05454     0.55695512E+01     0.55695512E+01
      6.06814     0.56985595E+01     0.56985595E+01
      6.08175     0.57716473E+01     0.57716473E+01
      6.09535     0.59058924E+01     0.59058924E+01
      6.10896     0.58866217E+01     0.58866217E+01
      6.12256     0.58633376E+01     0.58633376E+01
      6.13617     0.58387776E+01     0.58387776E+01
      6.14978     0.58056306E+01     0.58056306E+01
      6.16338     0.57909950E+01     0.57909950E+01
      6.17699     0.57616052E+01     0.57616052E+01
      6.19059     0.57424427E+01     0.57424427E+01
      6.20420     0.57344877E+01     0.57344877E+01
      6.21780     0.57177930E+01     0.57177930E+01
      6.23141     0.57688762E+01     0.57688762E+01
      6.24502     0.58477532E+01     0.58477532E+01
      6.25862     0.59469426E+01     0.59469426E+01
      6.27223     0.60692121E+01     0.60692121E+01
      6.28583     0.62274935E+01     0.62274935E+01
      6.29944     0.64785723E+01     0.64785723E+01
      6.31304     0.66694888E+01     0.66694888E+01
      6.32665     0.67289985E+01     0.67289985E+01
      6.34026     0.66837616E+01     0.66837616E+01
      6.35386     0.66860718E+01     0.66860718E+01
      6.36747     0.66176083E+01     0.66176083E+01
      6.38107     0.62957766E+01     0.62957766E+01
      6.39468     0.61642273E+01     0.61642273E+01
      6.40828     0.61461172E+01     0.61461172E+01
      6.42189     0.61775989E+01     0.61775989E+01
      6.43549     0.62265398E+01     0.62265398E+01
      6.44910     0.60122388E+01     0.60122388E+01
      6.46271     0.59474206E+01     0.59474206E+01
      6.47631     0.59145424E+01     0.59145424E+01
      6.48992     0.58989466E+01     0.58989466E+01
      6.50352     0.58673582E+01     0.58673582E+01
      6.51713     0.58374571E+01     0.58374571E+01
      6.53073     0.58466390E+01     0.58466390E+01
      6.54434     0.58242679E+01     0.58242679E+01
      6.55795     0.57683222E+01     0.57683222E+01
      6.57155     0.57063553E+01     0.57063553E+01
      6.58516     0.56694306E+01     0.56694306E+01
      6.59876     0.56632760E+01     0.56632760E+01
      6.61237     0.56549114E+01     0.56549114E+01
      6.62597     0.56383117E+01     0.56383117E+01
      6.63958     0.56315548E+01     0.56315548E+01
      6.65319     0.56792869E+01     0.56792869E+01
      6.66679     0.57801400E+01     0.57801400E+01
      6.68040     0.57104773E+01     0.57104773E+01
      6.69400     0.55725026E+01     0.55725026E+01
      6.70761     0.56806450E+01     0.56806450E+01
      6.72121     0.53143855E+01     0.53143855E+01
      6.73482     0.50655202E+01     0.50655202E+01
      6.74843     0.50185030E+01     0.50185030E+01
      6.76203     0.49261047E+01     0.49261047E+01
      6.77564     0.48944256E+01     0.48944256E+01
      6.78924     0.48474995E+01     0.48474995E+01
      6.80285     0.47884433E+01     0.47884433E+01
      6.81645     0.47428911E+01     0.47428911E+01
      6.83006     0.47211762E+01     0.47211762E+01
      6.84367     0.47478642E+01     0.47478642E+01
      6.85727     0.48751129E+01     0.48751129E+01
      6.87088     0.47528012E+01     0.47528012E+01
      6.88448     0.43559151E+01     0.43559151E+01
      6.89809     0.39108259E+01     0.39108259E+01
      6.91169     0.36501443E+01     0.36501443E+01
      6.92530     0.34591997E+01     0.34591997E+01
      6.93891     0.34333606E+01     0.34333606E+01
      6.95251     0.34395760E+01     0.34395760E+01
      6.96612     0.34416234E+01     0.34416234E+01
      6.97972     0.34478475E+01     0.34478475E+01
      6.99333     0.34576476E+01     0.34576476E+01
      7.00693     0.34802781E+01     0.34802781E+01
      7.02054     0.35204376E+01     0.35204376E+01
      7.03415     0.35355622E+01     0.35355622E+01
      7.04775     0.35486637E+01     0.35486637E+01
      7.06136     0.35637501E+01     0.35637501E+01
      7.07496     0.35836396E+01     0.35836396E+01
      7.08857     0.36161331E+01     0.36161331E+01
      7.10217     0.36600190E+01     0.36600190E+01
      7.11578     0.37127521E+01     0.37127521E+01
      7.12939     0.39146956E+01     0.39146956E+01
      7.14299     0.40469303E+01     0.40469303E+01
      7.15660     0.39711223E+01     0.39711223E+01
      7.17020     0.39606051E+01     0.39606051E+01
      7.18381     0.39923892E+01     0.39923892E+01
      7.19741     0.40328872E+01     0.40328872E+01
      7.21102     0.40666505E+01     0.40666505E+01
      7.22463     0.41769850E+01     0.41769850E+01
      7.23823     0.41169442E+01     0.41169442E+01
      7.25184     0.41229459E+01     0.41229459E+01
      7.26544     0.40418255E+01     0.40418255E+01
      7.27905     0.40212266E+01     0.40212266E+01
      7.29265     0.40294373E+01     0.40294373E+01
      7.30626     0.40682658E+01     0.40682658E+01
      7.31987     0.40780139E+01     0.40780139E+01
      7.33347     0.40024925E+01     0.40024925E+01
      7.34708     0.39272485E+01     0.39272485E+01
      7.36068     0.39691237E+01     0.39691237E+01
      7.37429     0.39526063E+01     0.39526063E+01
      7.38789     0.39543208E+01     0.39543208E+01
      7.40150     0.39510339E+01     0.39510339E+01
      7.41511     0.38910333E+01     0.38910333E+01
      7.42871     0.38681729E+01     0.38681729E+01
      7.44232     0.39147319E+01     0.39147319E+01
      7.45592     0.39424653E+01     0.39424653E+01
      7.46953     0.41215187E+01     0.41215187E+01
      7.48313     0.43149651E+01     0.43149651E+01
      7.49674     0.43575652E+01     0.43575652E+01
      7.51035     0.45203114E+01     0.45203114E+01
      7.52395     0.46314997E+01     0.46314997E+01
      7.53756     0.47724609E+01     0.47724609E+01
      7.55116     0.51800327E+01     0.51800327E+01
      7.56477     0.53615934E+01     0.53615934E+01
      7.57837     0.54169772E+01     0.54169772E+01
      7.59198     0.54700782E+01     0.54700782E+01
      7.60558     0.54184922E+01     0.54184922E+01
      7.61919     0.53575030E+01     0.53575030E+01
      7.63280     0.53583211E+01     0.53583211E+01
      7.64640     0.54077313E+01     0.54077313E+01
      7.66001     0.55436497E+01     0.55436497E+01
      7.67361     0.55890564E+01     0.55890564E+01
      7.68722     0.55575945E+01     0.55575945E+01
      7.70082     0.56829939E+01     0.56829939E+01
      7.71443     0.57187145E+01     0.57187145E+01
      7.72804     0.59692117E+01     0.59692117E+01
      7.74164     0.62239005E+01     0.62239005E+01
      7.75525     0.59645526E+01     0.59645526E+01
      7.76885     0.54157928E+01     0.54157928E+01
      7.78246     0.51407496E+01     0.51407496E+01
      7.79606     0.50918090E+01     0.50918090E+01
      7.80967     0.50928140E+01     0.50928140E+01
      7.82328     0.52387244E+01     0.52387244E+01
      7.83688     0.51175682E+01     0.51175682E+01
      7.85049     0.50966916E+01     0.50966916E+01
      7.86409     0.50840517E+01     0.50840517E+01
      7.87770     0.49718429E+01     0.49718429E+01
      7.89130     0.48067291E+01     0.48067291E+01
      7.90491     0.46988981E+01     0.46988981E+01
      7.91852     0.47148195E+01     0.47148195E+01
      7.93212     0.46661814E+01     0.46661814E+01
      7.94573     0.45196838E+01     0.45196838E+01
      7.95933     0.43908865E+01     0.43908865E+01
      7.97294     0.43930753E+01     0.43930753E+01
      7.98654     0.41672522E+01     0.41672522E+01
      8.00015     0.41394116E+01     0.41394116E+01
      8.01376     0.41564093E+01     0.41564093E+01
      8.02736     0.41603207E+01     0.41603207E+01
      8.04097     0.42010093E+01     0.42010093E+01
      8.05457     0.42357387E+01     0.42357387E+01
      8.06818     0.41981947E+01     0.41981947E+01
      8.08178     0.41815754E+01     0.41815754E+01
      8.09539     0.41926821E+01     0.41926821E+01
      8.10900     0.41032269E+01     0.41032269E+01
      8.12260     0.39830985E+01     0.39830985E+01
      8.13621     0.38581792E+01     0.38581792E+01
      8.14981     0.36587440E+01     0.36587440E+01
      8.16342     0.35468843E+01     0.35468843E+01
      8.17702     0.34370010E+01     0.34370010E+01
      8.19063     0.33941827E+01     0.33941827E+01
      8.20424     0.33876583E+01     0.33876583E+01
      8.21784     0.34369005E+01     0.34369005E+01
      8.23145     0.36049668E+01     0.36049668E+01
      8.24505     0.37738762E+01     0.37738762E+01
      8.25866     0.35699207E+01     0.35699207E+01
      8.27226     0.34577310E+01     0.34577310E+01
      8.28587     0.35755777E+01     0.35755777E+01
      8.29948     0.39167705E+01     0.39167705E+01
      8.31308     0.41824012E+01     0.41824012E+01
      8.32669     0.44868829E+01     0.44868829E+01
      8.34029     0.47183287E+01     0.47183287E+01
      8.35390     0.43547220E+01     0.43547220E+01
      8.36750     0.36620143E+01     0.36620143E+01
      8.38111     0.34826331E+01     0.34826331E+01
      8.39472     0.32770086E+01     0.32770086E+01
      8.40832     0.31976388E+01     0.31976388E+01
      8.42193     0.31507749E+01     0.31507749E+01
      8.43553     0.31181934E+01     0.31181934E+01
      8.44914     0.28612026E+01     0.28612026E+01
      8.46274     0.26199133E+01     0.26199133E+01
      8.47635     0.25110819E+01     0.25110819E+01
      8.48996     0.24470371E+01     0.24470371E+01
      8.50356     0.24004994E+01     0.24004994E+01
      8.51717     0.23707789E+01     0.23707789E+01
      8.53077     0.23500457E+01     0.23500457E+01
      8.54438     0.24896377E+01     0.24896377E+01
      8.55798     0.26250531E+01     0.26250531E+01
      8.57159     0.26745663E+01     0.26745663E+01
      8.58520     0.26286289E+01     0.26286289E+01
      8.59880     0.24632389E+01     0.24632389E+01
      8.61241     0.22915687E+01     0.22915687E+01
      8.62601     0.22248696E+01     0.22248696E+01
      8.63962     0.21851444E+01     0.21851444E+01
      8.65322     0.21296852E+01     0.21296852E+01
      8.66683     0.20862255E+01     0.20862255E+01
      8.68044     0.20175098E+01     0.20175098E+01
      8.69404     0.19702500E+01     0.19702500E+01
      8.70765     0.19457679E+01     0.19457679E+01
      8.72125     0.19465109E+01     0.19465109E+01
      8.73486     0.19625663E+01     0.19625663E+01
      8.74846     0.19767976E+01     0.19767976E+01
      8.76207     0.19896155E+01     0.19896155E+01
      8.77567     0.19990300E+01     0.19990300E+01
      8.78928     0.20003666E+01     0.20003666E+01
      8.80289     0.20027984E+01     0.20027984E+01
      8.81649     0.20613216E+01     0.20613216E+01
      8.83010     0.21494721E+01     0.21494721E+01
      8.84370     0.24335946E+01     0.24335946E+01
      8.85731     0.23983985E+01     0.23983985E+01
      8.87091     0.23176679E+01     0.23176679E+01
      8.88452     0.26219665E+01     0.26219665E+01
      8.89813     0.27806978E+01     0.27806978E+01
      8.91173     0.30773163E+01     0.30773163E+01
      8.92534     0.28981988E+01     0.28981988E+01
      8.93894     0.27610637E+01     0.27610637E+01
      8.95255     0.26975196E+01     0.26975196E+01
      8.96615     0.27110648E+01     0.27110648E+01
      8.97976     0.27132558E+01     0.27132558E+01
      8.99337     0.27526305E+01     0.27526305E+01
      9.00697     0.28523461E+01     0.28523461E+01
      9.02058     0.29212098E+01     0.29212098E+01
      9.03418     0.30184429E+01     0.30184429E+01
      9.04779     0.30948667E+01     0.30948667E+01
      9.06139     0.31519758E+01     0.31519758E+01
      9.07500     0.32002712E+01     0.32002712E+01
      9.08861     0.33294117E+01     0.33294117E+01
      9.10221     0.35528912E+01     0.35528912E+01
      9.11582     0.37460671E+01     0.37460671E+01
      9.12942     0.34719674E+01     0.34719674E+01
      9.14303     0.34978117E+01     0.34978117E+01
      9.15663     0.37445855E+01     0.37445855E+01
      9.17024     0.38096463E+01     0.38096463E+01
      9.18385     0.33023641E+01     0.33023641E+01
      9.19745     0.30070755E+01     0.30070755E+01
      9.21106     0.28444915E+01     0.28444915E+01
      9.22466     0.28271221E+01     0.28271221E+01
      9.23827     0.29909459E+01     0.29909459E+01
      9.25187     0.28399675E+01     0.28399675E+01
      9.26548     0.27680753E+01     0.27680753E+01
      9.27909     0.27022076E+01     0.27022076E+01
      9.29269     0.26373128E+01     0.26373128E+01
      9.30630     0.26014671E+01     0.26014671E+01
      9.31990     0.25907886E+01     0.25907886E+01
      9.33351     0.26670453E+01     0.26670453E+01
      9.34711     0.27276500E+01     0.27276500E+01
      9.36072     0.27725554E+01     0.27725554E+01
      9.37433     0.27617072E+01     0.27617072E+01
      9.38793     0.28067072E+01     0.28067072E+01
      9.40154     0.28146902E+01     0.28146902E+01
      9.41514     0.27421057E+01     0.27421057E+01
      9.42875     0.26978785E+01     0.26978785E+01
      9.44235     0.27966572E+01     0.27966572E+01
      9.45596     0.28942491E+01     0.28942491E+01
      9.46957     0.30174260E+01     0.30174260E+01
      9.48317     0.31117498E+01     0.31117498E+01
      9.49678     0.31771127E+01     0.31771127E+01
      9.51038     0.31522862E+01     0.31522862E+01
      9.52399     0.31946012E+01     0.31946012E+01
      9.53759     0.30761832E+01     0.30761832E+01
      9.55120     0.30012930E+01     0.30012930E+01
      9.56481     0.29836701E+01     0.29836701E+01
      9.57841     0.30052271E+01     0.30052271E+01
      9.59202     0.30994289E+01     0.30994289E+01
      9.60562     0.31324094E+01     0.31324094E+01
      9.61923     0.31558002E+01     0.31558002E+01
      9.63283     0.31956257E+01     0.31956257E+01
      9.64644     0.32606221E+01     0.32606221E+01
      9.66005     0.33145021E+01     0.33145021E+01
      9.67365     0.32870995E+01     0.32870995E+01
      9.68726     0.33796741E+01     0.33796741E+01
      9.70086     0.34107547E+01     0.34107547E+01
      9.71447     0.34027024E+01     0.34027024E+01
      9.72807     0.33531435E+01     0.33531435E+01
      9.74168     0.33389430E+01     0.33389430E+01
      9.75529     0.33165031E+01     0.33165031E+01
      9.76889     0.33259622E+01     0.33259622E+01
      9.78250     0.32889122E+01     0.32889122E+01
      9.79610     0.32675661E+01     0.32675661E+01
      9.80971     0.32821193E+01     0.32821193E+01
      9.82331     0.33073214E+01     0.33073214E+01
      9.83692     0.33615878E+01     0.33615878E+01
      9.85053     0.33951957E+01     0.33951957E+01
      9.86413     0.32279213E+01     0.32279213E+01
      9.87774     0.31608157E+01     0.31608157E+01
      9.89134     0.31768125E+01     0.31768125E+01
      9.90495     0.30281161E+01     0.30281161E+01
      9.91855     0.29147314E+01     0.29147314E+01
      9.93216     0.30193625E+01     0.30193625E+01
      9.94576     0.32308221E+01     0.32308221E+01
      9.95937     0.34560239E+01     0.34560239E+01
      9.97298     0.34586357E+01     0.34586357E+01
      9.98658     0.39142020E+01     0.39142020E+01
     10.00019     0.42859124E+01     0.42859124E+01
     10.01379     0.40019650E+01     0.40019650E+01
     10.02740     0.38840745E+01     0.38840745E+01
     10.04100     0.36784347E+01     0.36784347E+01
     10.05461     0.34856805E+01     0.34856805E+01
     10.06822     0.33437621E+01     0.33437621E+01
     10.08182     0.32878347E+01     0.32878347E+01
     10.09543     0.32390046E+01     0.32390046E+01
     10.10903     0.31510455E+01     0.31510455E+01
     10.12264     0.30612470E+01     0.30612470E+01
     10.13624     0.29993288E+01     0.29993288E+01
     10.14985     0.29803334E+01     0.29803334E+01
     10.16346     0.29860004E+01     0.29860004E+01
     10.17706     0.29719002E+01     0.29719002E+01
     10.19067     0.30408184E+01     0.30408184E+01
     10.20427     0.30254839E+01     0.30254839E+01
     10.21788     0.30311013E+01     0.30311013E+01
     10.23148     0.30910959E+01     0.30910959E+01
     10.24509     0.29990012E+01     0.29990012E+01
     10.25870     0.30439394E+01     0.30439394E+01
     10.27230     0.30741481E+01     0.30741481E+01
     10.28591     0.30653270E+01     0.30653270E+01
     10.29951     0.30131227E+01     0.30131227E+01
     10.31312     0.29759571E+01     0.29759571E+01
     10.32672     0.30308136E+01     0.30308136E+01
     10.34033     0.28844371E+01     0.28844371E+01
     10.35394     0.27421605E+01     0.27421605E+01
     10.36754     0.26773259E+01     0.26773259E+01
     10.38115     0.26637248E+01     0.26637248E+01
     10.39475     0.26623805E+01     0.26623805E+01
     10.40836     0.26719102E+01     0.26719102E+01
     10.42196     0.26615834E+01     0.26615834E+01
     10.43557     0.25992351E+01     0.25992351E+01
     10.44918     0.25578747E+01     0.25578747E+01
     10.46278     0.25569938E+01     0.25569938E+01
     10.47639     0.25284430E+01     0.25284430E+01
     10.48999     0.24330163E+01     0.24330163E+01
     10.50360     0.23543952E+01     0.23543952E+01
     10.51720     0.22580932E+01     0.22580932E+01
     10.53081     0.22083866E+01     0.22083866E+01
     10.54442     0.22734378E+01     0.22734378E+01
     10.55802     0.24092364E+01     0.24092364E+01
     10.57163     0.23707113E+01     0.23707113E+01
     10.58523     0.22987364E+01     0.22987364E+01
     10.59884     0.22911460E+01     0.22911460E+01
     10.61244     0.22907872E+01     0.22907872E+01
     10.62605     0.22678544E+01     0.22678544E+01
     10.63966     0.22687463E+01     0.22687463E+01
     10.65326     0.22821089E+01     0.22821089E+01
     10.66687     0.22932781E+01     0.22932781E+01
     10.68047     0.23462425E+01     0.23462425E+01
     10.69408     0.24815606E+01     0.24815606E+01
     10.70768     0.25781918E+01     0.25781918E+01
     10.72129     0.25553192E+01     0.25553192E+01
     10.73490     0.25238154E+01     0.25238154E+01
     10.74850     0.24725010E+01     0.24725010E+01
     10.76211     0.24531441E+01     0.24531441E+01
     10.77571     0.24049115E+01     0.24049115E+01
     10.78932     0.24186275E+01     0.24186275E+01
     10.80292     0.24625293E+01     0.24625293E+01
     10.81653     0.25064461E+01     0.25064461E+01
     10.83014     0.25900177E+01     0.25900177E+01
     10.84374     0.27266062E+01     0.27266062E+01
     10.85735     0.28577186E+01     0.28577186E+01
     10.87095     0.30306227E+01     0.30306227E+01
     10.88456     0.31879763E+01     0.31879763E+01
     10.89816     0.30970984E+01     0.30970984E+01
     10.91177     0.28734582E+01     0.28734582E+01
     10.92538     0.26158070E+01     0.26158070E+01
     10.93898     0.27196170E+01     0.27196170E+01
     10.95259     0.25571163E+01     0.25571163E+01
     10.96619     0.25647180E+01     0.25647180E+01
     10.97980     0.24291724E+01     0.24291724E+01
     10.99340     0.23802803E+01     0.23802803E+01
     11.00701     0.23384951E+01     0.23384951E+01
     11.02062     0.22893234E+01     0.22893234E+01
     11.03422     0.23135351E+01     0.23135351E+01
     11.04783     0.22353001E+01     0.22353001E+01
     11.06143     0.22349512E+01     0.22349512E+01
     11.07504     0.22001044E+01     0.22001044E+01
     11.08864     0.21402055E+01     0.21402055E+01
     11.10225     0.20976050E+01     0.20976050E+01
     11.11585     0.20633179E+01     0.20633179E+01
     11.12946     0.19932429E+01     0.19932429E+01
     11.14307     0.19648924E+01     0.19648924E+01
     11.15667     0.19179897E+01     0.19179897E+01
     11.17028     0.18845801E+01     0.18845801E+01
     11.18388     0.18621737E+01     0.18621737E+01
     11.19749     0.18596548E+01     0.18596548E+01
     11.21109     0.18618361E+01     0.18618361E+01
     11.22470     0.18441478E+01     0.18441478E+01
     11.23831     0.18407302E+01     0.18407302E+01
     11.25191     0.18038049E+01     0.18038049E+01
     11.26552     0.17727948E+01     0.17727948E+01
     11.27912     0.17258977E+01     0.17258977E+01
     11.29273     0.16905880E+01     0.16905880E+01
     11.30633     0.16315032E+01     0.16315032E+01
     11.31994     0.15898826E+01     0.15898826E+01
     11.33355     0.15622810E+01     0.15622810E+01
     11.34715     0.15444243E+01     0.15444243E+01
     11.36076     0.15248176E+01     0.15248176E+01
     11.37436     0.15024706E+01     0.15024706E+01
     11.38797     0.14883159E+01     0.14883159E+01
     11.40157     0.14880405E+01     0.14880405E+01
     11.41518     0.15058455E+01     0.15058455E+01
     11.42879     0.15140183E+01     0.15140183E+01
     11.44239     0.14963214E+01     0.14963214E+01
     11.45600     0.14657142E+01     0.14657142E+01
     11.46960     0.14810979E+01     0.14810979E+01
     11.48321     0.15304825E+01     0.15304825E+01
     11.49681     0.14996224E+01     0.14996224E+01
     11.51042     0.14899332E+01     0.14899332E+01
     11.52403     0.14692667E+01     0.14692667E+01
     11.53763     0.14774836E+01     0.14774836E+01
     11.55124     0.14743258E+01     0.14743258E+01
     11.56484     0.14518916E+01     0.14518916E+01
     11.57845     0.14636984E+01     0.14636984E+01
     11.59205     0.15041435E+01     0.15041435E+01
     11.60566     0.14837872E+01     0.14837872E+01
     11.61927     0.14592193E+01     0.14592193E+01
     11.63287     0.14823730E+01     0.14823730E+01
     11.64648     0.15267135E+01     0.15267135E+01
     11.66008     0.16104600E+01     0.16104600E+01
     11.67369     0.16467964E+01     0.16467964E+01
     11.68729     0.16774571E+01     0.16774571E+01
     11.70090     0.16701810E+01     0.16701810E+01
     11.71451     0.16158383E+01     0.16158383E+01
     11.72811     0.15444878E+01     0.15444878E+01
     11.74172     0.14929746E+01     0.14929746E+01
     11.75532     0.14988189E+01     0.14988189E+01
     11.76893     0.14922806E+01     0.14922806E+01
     11.78253     0.14777645E+01     0.14777645E+01
     11.79614     0.14834282E+01     0.14834282E+01
     11.80975     0.14080160E+01     0.14080160E+01
     11.82335     0.13897122E+01     0.13897122E+01
     11.83696     0.13653644E+01     0.13653644E+01
     11.85056     0.12467677E+01     0.12467677E+01
     11.86417     0.11275044E+01     0.11275044E+01
     11.87777     0.10300839E+01     0.10300839E+01
     11.89138     0.98635762E+00     0.98635762E+00
     11.90499     0.96686053E+00     0.96686053E+00
     11.91859     0.10548567E+01     0.10548567E+01
     11.93220     0.10008604E+01     0.10008604E+01
     11.94580     0.90274048E+00     0.90274048E+00
     11.95941     0.90653782E+00     0.90653782E+00
     11.97301     0.87625156E+00     0.87625156E+00
     11.98662     0.82611244E+00     0.82611244E+00
     12.00023     0.79645058E+00     0.79645058E+00
     12.01383     0.77416401E+00     0.77416401E+00
     12.02744     0.78176027E+00     0.78176027E+00
     12.04104     0.77402139E+00     0.77402139E+00
     12.05465     0.82178799E+00     0.82178799E+00
     12.06825     0.85056739E+00     0.85056739E+00
     12.08186     0.71534733E+00     0.71534733E+00
     12.09547     0.67127736E+00     0.67127736E+00
     12.10907     0.65829283E+00     0.65829283E+00
     12.12268     0.67862072E+00     0.67862072E+00
     12.13628     0.66016592E+00     0.66016592E+00
     12.14989     0.64180465E+00     0.64180465E+00
     12.16349     0.61355546E+00     0.61355546E+00
     12.17710     0.61240133E+00     0.61240133E+00
     12.19071     0.60367531E+00     0.60367531E+00
     12.20431     0.59329128E+00     0.59329128E+00
     12.21792     0.61289826E+00     0.61289826E+00
     12.23152     0.70479123E+00     0.70479123E+00
     12.24513     0.76227415E+00     0.76227415E+00
     12.25873     0.74982749E+00     0.74982749E+00
     12.27234     0.76027685E+00     0.76027685E+00
     12.28594     0.77817932E+00     0.77817932E+00
     12.29955     0.79400375E+00     0.79400375E+00
     12.31316     0.78832296E+00     0.78832296E+00
     12.32676     0.80632499E+00     0.80632499E+00
     12.34037     0.81407492E+00     0.81407492E+00
     12.35397     0.82595651E+00     0.82595651E+00
     12.36758     0.83490944E+00     0.83490944E+00
     12.38118     0.84115131E+00     0.84115131E+00
     12.39479     0.82721633E+00     0.82721633E+00
     12.40840     0.83163230E+00     0.83163230E+00
     12.42200     0.73631884E+00     0.73631884E+00
     12.43561     0.70676158E+00     0.70676158E+00
     12.44921     0.69896762E+00     0.69896762E+00
     12.46282     0.72126793E+00     0.72126793E+00
     12.47642     0.77751592E+00     0.77751592E+00
     12.49003     0.80175340E+00     0.80175340E+00
     12.50364     0.81671905E+00     0.81671905E+00
     12.51724     0.79646870E+00     0.79646870E+00
     12.53085     0.80039721E+00     0.80039721E+00
     12.54445     0.81371756E+00     0.81371756E+00
     12.55806     0.82498736E+00     0.82498736E+00
     12.57166     0.81881050E+00     0.81881050E+00
     12.58527     0.80109292E+00     0.80109292E+00
     12.59888     0.79012613E+00     0.79012613E+00
     12.61248     0.72052287E+00     0.72052287E+00
     12.62609     0.73251910E+00     0.73251910E+00
     12.63969     0.72694968E+00     0.72694968E+00
     12.65330     0.67910340E+00     0.67910340E+00
     12.66690     0.61722170E+00     0.61722170E+00
     12.68051     0.59075600E+00     0.59075600E+00
     12.69412     0.56540187E+00     0.56540187E+00
     12.70772     0.56115406E+00     0.56115406E+00
     12.72133     0.56501990E+00     0.56501990E+00
     12.73493     0.56902548E+00     0.56902548E+00
     12.74854     0.57202191E+00     0.57202191E+00
     12.76214     0.57297251E+00     0.57297251E+00
     12.77575     0.56162262E+00     0.56162262E+00
     12.78936     0.55578570E+00     0.55578570E+00
     12.80296     0.55683754E+00     0.55683754E+00
     12.81657     0.56088464E+00     0.56088464E+00
     12.83017     0.56446794E+00     0.56446794E+00
     12.84378     0.56271060E+00     0.56271060E+00
     12.85738     0.55946358E+00     0.55946358E+00
     12.87099     0.56548923E+00     0.56548923E+00
     12.88460     0.56525842E+00     0.56525842E+00
     12.89820     0.55906786E+00     0.55906786E+00
     12.91181     0.56487009E+00     0.56487009E+00
     12.92541     0.56767019E+00     0.56767019E+00
     12.93902     0.56965196E+00     0.56965196E+00
     12.95262     0.56794507E+00     0.56794507E+00
     12.96623     0.56912989E+00     0.56912989E+00
     12.97984     0.56037840E+00     0.56037840E+00
     12.99344     0.55599971E+00     0.55599971E+00
     13.00705     0.55352821E+00     0.55352821E+00
     13.02065     0.55011953E+00     0.55011953E+00
     13.03426     0.54816109E+00     0.54816109E+00
     13.04786     0.54919177E+00     0.54919177E+00
     13.06147     0.55269313E+00     0.55269313E+00
     13.07508     0.55806711E+00     0.55806711E+00
     13.08868     0.56532346E+00     0.56532346E+00
     13.10229     0.57034088E+00     0.57034088E+00
     13.11589     0.57726275E+00     0.57726275E+00
     13.12950     0.57644087E+00     0.57644087E+00
     13.14310     0.57409622E+00     0.57409622E+00
     13.15671     0.57564011E+00     0.57564011E+00
     13.17032     0.58047611E+00     0.58047611E+00
     13.18392     0.58027192E+00     0.58027192E+00
     13.19753     0.59101572E+00     0.59101572E+00
     13.21113     0.60775181E+00     0.60775181E+00
     13.22474     0.62671662E+00     0.62671662E+00
     13.23834     0.61508271E+00     0.61508271E+00
     13.25195     0.60482222E+00     0.60482222E+00
     13.26556     0.60082774E+00     0.60082774E+00
     13.27916     0.59449925E+00     0.59449925E+00
     13.29277     0.59163260E+00     0.59163260E+00
     13.30637     0.58097548E+00     0.58097548E+00
     13.31998     0.58709614E+00     0.58709614E+00
     13.33358     0.59661511E+00     0.59661511E+00
     13.34719     0.60791934E+00     0.60791934E+00
     13.36080     0.62600725E+00     0.62600725E+00
     13.37440     0.64940580E+00     0.64940580E+00
     13.38801     0.64869036E+00     0.64869036E+00
     13.40161     0.66051150E+00     0.66051150E+00
     13.41522     0.62263070E+00     0.62263070E+00
     13.42882     0.57679504E+00     0.57679504E+00
     13.44243     0.56816676E+00     0.56816676E+00
     13.45603     0.57343753E+00     0.57343753E+00
     13.46964     0.58392958E+00     0.58392958E+00
     13.48325     0.59802784E+00     0.59802784E+00
     13.49685     0.60411437E+00     0.60411437E+00
     13.51046     0.60699777E+00     0.60699777E+00
     13.52406     0.60594724E+00     0.60594724E+00
     13.53767     0.60816548E+00     0.60816548E+00
     13.55127     0.61281493E+00     0.61281493E+00
     13.56488     0.61668303E+00     0.61668303E+00
     13.57849     0.62593902E+00     0.62593902E+00
     13.59209     0.64162939E+00     0.64162939E+00
     13.60570     0.64967553E+00     0.64967553E+00
